Frequency (Hz)	Level (dB)
86.132813	-48.990715
172.265625	-51.751762
258.398438	-59.772884
344.531250	-62.106415
430.664063	-64.407585
516.796875	-61.065643
602.929688	-60.951645
689.062500	-62.522701
775.195313	-61.693893
861.328125	-65.239746
947.460938	-68.348373
1033.593750	-69.781097
1119.726563	-69.327454
1205.859375	-67.010941
1291.992188	-62.392918
1378.125000	-49.380974
1464.257813	-46.380543
1550.390625	-52.109573
1636.523438	-59.548931
1722.656250	-63.284386
1808.789063	-67.814384
1894.921875	-63.901390
1981.054688	-57.121792
2067.187500	-59.489605
2153.320313	-68.101723
2239.453125	-68.292953
2325.585938	-69.711044
2411.718750	-61.394871
2497.851563	-59.860584
2583.984375	-67.444771
2670.117188	-67.715508
2756.250000	-71.449951
2842.382813	-74.962250
2928.515625	-75.018394
3014.648438	-75.575485
3100.781250	-77.082558
3186.914063	-79.066673
3273.046875	-80.440445
3359.179688	-82.562798
3445.312500	-88.007607
3531.445313	-86.745216
3617.578125	-79.686897
3703.710938	-74.565170
3789.843750	-73.506538
3875.976563	-71.274940
3962.109375	-72.601021
4048.242188	-78.811623
4134.375000	-79.260307
4220.507813	-78.583717
4306.640625	-77.980904
4392.773438	-79.659477
4478.906250	-84.242271
4565.039063	-82.537872
4651.171875	-75.572151
4737.304688	-73.730698
4823.437500	-66.176949
4909.570313	-64.582260
4995.703125	-70.404602
5081.835938	-74.385757
5167.968750	-76.396225
5254.101563	-79.000320
5340.234375	-80.789391
5426.367188	-80.279716
5512.500000	-80.228287
5598.632813	-82.703514
5684.765625	-74.280602
5770.898438	-71.554970
5857.031250	-75.718773
5943.164063	-77.813461
6029.296875	-76.346573
6115.429688	-75.862213
6201.562500	-78.276688
6287.695313	-79.632576
6373.828125	-76.917915
6459.960938	-74.547066
6546.093750	-76.271912
6632.226563	-77.940041
6718.359375	-78.445786
6804.492188	-81.887405
6890.625000	-87.400513
6976.757813	-81.776588
7062.890625	-80.629608
7149.023438	-83.543526
7235.156250	-87.714340
7321.289063	-85.260452
7407.421875	-84.812263
7493.554688	-89.941612
7579.687500	-92.950356
7665.820313	-88.885384
7751.953125	-87.492073
7838.085938	-81.034447
7924.218750	-76.302422
8010.351563	-74.606651
8096.484375	-75.718506
8182.617188	-80.565720
8268.750000	-87.524933
8354.882813	-88.531807
8441.015625	-90.758705
8527.148438	-95.036629
8613.281250	-97.416801
8699.414063	-92.796509
8785.546875	-89.871086
8871.679688	-88.995613
8957.812500	-93.026443
9043.945313	-95.973114
9130.078125	-99.046730
9216.210938	-97.587921
9302.343750	-95.429718
9388.476563	-97.905052
9474.609375	-97.606842
9560.742188	-94.151642
9646.875000	-94.366821
9733.007813	-92.820839
9819.140625	-91.674591
9905.273438	-85.879829
9991.406250	-81.746933
10077.539063	-83.690170
10163.671875	-83.806747
10249.804688	-81.026665
10335.937500	-82.223366
10422.070313	-85.916588
10508.203125	-88.502861
10594.335938	-89.457748
10680.468750	-90.802620
10766.601563	-89.155014
10852.734375	-89.934532
10938.867188	-93.508385
11025.000000	-92.320267
11111.132813	-92.319359
11197.265625	-96.369942
11283.398438	-95.644943
11369.531250	-92.283722
11455.664063	-93.434891
11541.796875	-98.520256
11627.929688	-107.915031
11714.062500	-106.532951
11800.195313	-102.385834
11886.328125	-101.914963
11972.460938	-103.831139
12058.593750	-102.350624
12144.726563	-103.721115
12230.859375	-106.735313
12316.992188	-104.134743
12403.125000	-102.482254
12489.257813	-99.559662
12575.390625	-98.469185
12661.523438	-100.066528
12747.656250	-101.082451
12833.789063	-105.196037
12919.921875	-105.707619
13006.054688	-99.991753
13092.187500	-97.707039
13178.320313	-101.497475
13264.453125	-100.905174
13350.585938	-102.870125
13436.718750	-100.870361
13522.851563	-98.289330
13608.984375	-100.863075
13695.117188	-102.811127
13781.250000	-102.839615
13867.382813	-99.603638
13953.515625	-98.923126
14039.648438	-102.231224
14125.781250	-107.055275
14211.914063	-106.658150
14298.046875	-106.163895
14384.179688	-102.407448
14470.312500	-102.951942
14556.445313	-98.255074
14642.578125	-98.915337
14728.710938	-101.679367
14814.843750	-98.592148
14900.976563	-95.901733
14987.109375	-97.595825
15073.242188	-97.987686
15159.375000	-97.665710
15245.507813	-95.110275
15331.640625	-98.572212
15417.773438	-101.468239
15503.906250	-100.569618
15590.039063	-102.184235
15676.171875	-100.908859
15762.304688	-101.993362
15848.437500	-99.132156
15934.570313	-95.708664
16020.703125	-96.431839
16106.835938	-99.782288
16192.968750	-98.959305
16279.101563	-97.431610
16365.234375	-99.081383
16451.367188	-102.394073
16537.500000	-101.024635
16623.632813	-101.214958
16709.765625	-105.333733
16795.898438	-105.862976
16882.031250	-102.453476
16968.164063	-101.778862
17054.296875	-103.766762
17140.429688	-103.853966
17226.562500	-103.703911
17312.695313	-102.850304
17398.828125	-109.351807
17484.960938	-108.706215
17571.093750	-105.705910
17657.226563	-102.964722
17743.359375	-102.162582
17829.492188	-105.859856
17915.625000	-110.346848
18001.757813	-110.234230
18087.890625	-116.193207
18174.023438	-116.423866
18260.156250	-111.389374
18346.289063	-111.683128
18432.421875	-110.475807
18518.554688	-107.413132
18604.687500	-106.289017
18690.820313	-105.270256
18776.953125	-103.381340
18863.085938	-104.738022
18949.218750	-108.765427
19035.351563	-108.370491
19121.484375	-108.292328
19207.617188	-111.399643
19293.750000	-118.130714
19379.882813	-120.151711
19466.015625	-117.036438
19552.148438	-113.107109
19638.281250	-115.390221
19724.414063	-123.063202
19810.546875	-120.911507
19896.679688	-119.759583
19982.812500	-117.745819
20068.945313	-115.761261
20155.078125	-115.860016
20241.210938	-117.484276
20327.343750	-119.189590
20413.476563	-115.310760
20499.609375	-117.516998
20585.742188	-123.925240
20671.875000	-125.932091
20758.007813	-124.518333
20844.140625	-126.525482
20930.273438	-129.371078
21016.406250	-131.695862
21102.539063	-133.272797
21188.671875	-128.972702
21274.804688	-128.668106
21360.937500	-133.003922
21447.070313	-141.082977
21533.203125	-145.995361
21619.335938	-146.205246
21705.468750	-146.887497
21791.601563	-150.183212
21877.734375	-149.266693
21963.867188	-146.289886
