Frequency (Hz)	Level (dB)
86.132813	-49.645443
172.265625	-51.105812
258.398438	-55.004608
344.531250	-58.130829
430.664063	-59.175308
516.796875	-57.725578
602.929688	-57.892365
689.062500	-58.067440
775.195313	-60.020382
861.328125	-61.921337
947.460938	-62.349777
1033.593750	-61.628551
1119.726563	-58.806885
1205.859375	-53.747276
1291.992188	-44.133556
1378.125000	-41.786980
1464.257813	-47.992222
1550.390625	-52.643253
1636.523438	-57.696896
1722.656250	-60.744049
1808.789063	-60.050732
1894.921875	-60.250923
1981.054688	-53.604725
2067.187500	-56.327297
2153.320313	-61.127289
2239.453125	-59.870281
2325.585938	-65.948509
2411.718750	-66.858711
2497.851563	-65.028557
2583.984375	-62.576027
2670.117188	-61.283749
2756.250000	-61.982498
2842.382813	-63.840824
2928.515625	-66.999901
3014.648438	-73.837769
3100.781250	-74.758766
3186.914063	-65.595390
3273.046875	-60.071209
3359.179688	-57.895191
3445.312500	-62.703136
3531.445313	-70.335228
3617.578125	-66.192764
3703.710938	-63.748795
3789.843750	-62.474396
3875.976563	-60.596069
3962.109375	-58.799984
4048.242188	-56.798031
4134.375000	-56.319633
4220.507813	-57.994831
4306.640625	-58.121437
4392.773438	-57.664028
4478.906250	-56.001106
4565.039063	-53.643650
4651.171875	-50.868057
4737.304688	-49.700901
4823.437500	-54.633347
4909.570313	-64.000656
4995.703125	-69.375687
5081.835938	-69.246262
5167.968750	-66.801201
5254.101563	-66.799904
5340.234375	-68.413589
5426.367188	-70.410690
5512.500000	-71.661171
5598.632813	-68.692612
5684.765625	-64.130188
5770.898438	-62.244095
5857.031250	-64.694542
5943.164063	-68.511246
6029.296875	-70.565086
6115.429688	-70.705757
6201.562500	-71.747665
6287.695313	-75.759644
6373.828125	-76.171761
6459.960938	-72.849899
6546.093750	-70.406197
6632.226563	-71.305191
6718.359375	-73.049835
6804.492188	-72.749443
6890.625000	-72.222054
6976.757813	-72.772614
7062.890625	-74.204163
7149.023438	-76.137840
7235.156250	-77.811989
7321.289063	-75.967453
7407.421875	-75.008682
7493.554688	-73.890175
7579.687500	-70.642731
7665.820313	-72.914093
7751.953125	-70.400703
7838.085938	-65.502739
7924.218750	-63.482647
8010.351563	-63.636211
8096.484375	-63.343193
8182.617188	-61.684814
8268.750000	-60.580734
8354.882813	-61.368549
8441.015625	-63.087124
8527.148438	-63.861229
8613.281250	-65.694481
8699.414063	-69.285065
8785.546875	-72.902031
8871.679688	-75.053444
8957.812500	-76.703285
9043.945313	-81.026909
9130.078125	-89.509964
9216.210938	-88.487404
9302.343750	-82.601044
9388.476563	-82.290604
9474.609375	-87.859833
9560.742188	-86.240715
9646.875000	-82.361122
9733.007813	-81.830582
9819.140625	-85.990524
9905.273438	-87.270958
9991.406250	-84.404625
10077.539063	-82.887619
10163.671875	-81.451492
10249.804688	-80.550041
10335.937500	-80.610161
10422.070313	-80.903824
10508.203125	-81.087929
10594.335938	-81.024490
10680.468750	-80.183243
10766.601563	-79.169121
10852.734375	-79.827324
10938.867188	-83.813469
11025.000000	-86.966179
11111.132813	-85.517723
11197.265625	-85.769882
11283.398438	-87.661049
11369.531250	-85.754173
11455.664063	-84.417496
11541.796875	-84.738266
11627.929688	-84.868195
11714.062500	-85.026772
11800.195313	-86.187584
11886.328125	-86.832504
11972.460938	-90.194504
12058.593750	-95.923935
12144.726563	-97.918716
12230.859375	-98.540062
12316.992188	-96.488930
12403.125000	-94.640373
12489.257813	-95.053986
12575.390625	-100.523666
12661.523438	-103.148140
12747.656250	-99.616562
12833.789063	-101.450096
12919.921875	-104.103882
13006.054688	-101.367958
13092.187500	-99.394524
13178.320313	-99.693214
13264.453125	-99.468224
13350.585938	-96.606667
13436.718750	-93.956985
13522.851563	-93.158768
13608.984375	-95.545517
13695.117188	-98.792145
13781.250000	-97.361382
13867.382813	-97.526642
13953.515625	-95.599777
14039.648438	-92.105957
14125.781250	-88.031853
14211.914063	-84.530624
14298.046875	-84.017456
14384.179688	-83.969681
14470.312500	-83.973785
14556.445313	-85.777756
14642.578125	-88.068970
14728.710938	-88.421585
14814.843750	-88.284180
14900.976563	-87.535591
14987.109375	-85.213631
15073.242188	-82.965218
15159.375000	-82.396500
15245.507813	-83.876205
15331.640625	-87.901001
15417.773438	-93.993355
15503.906250	-100.095764
15590.039063	-100.358292
15676.171875	-99.173096
15762.304688	-94.833969
15848.437500	-93.461922
15934.570313	-94.064735
16020.703125	-93.526947
16106.835938	-93.711670
16192.968750	-94.824783
16279.101563	-96.289619
16365.234375	-95.334251
16451.367188	-93.083702
16537.500000	-92.796967
16623.632813	-93.310471
16709.765625	-93.566750
16795.898438	-95.030884
16882.031250	-96.905212
16968.164063	-97.955925
17054.296875	-96.242134
17140.429688	-96.505409
17226.562500	-100.830475
17312.695313	-99.482338
17398.828125	-96.913795
17484.960938	-93.043312
17571.093750	-90.363930
17657.226563	-89.563034
17743.359375	-89.826447
17829.492188	-91.135803
17915.625000	-93.431702
18001.757813	-96.139099
18087.890625	-97.338158
18174.023438	-100.776199
18260.156250	-105.677063
18346.289063	-108.930573
18432.421875	-106.956100
18518.554688	-108.030121
18604.687500	-110.696388
18690.820313	-106.360046
18776.953125	-105.444664
18863.085938	-103.249687
18949.218750	-99.642906
19035.351563	-97.841431
19121.484375	-98.257355
19207.617188	-100.813293
19293.750000	-103.718567
19379.882813	-103.483437
19466.015625	-103.993874
19552.148438	-107.099152
19638.281250	-111.293373
19724.414063	-112.953697
19810.546875	-112.455124
19896.679688	-111.374557
19982.812500	-107.348740
20068.945313	-106.466522
20155.078125	-106.625298
20241.210938	-109.403526
20327.343750	-109.967773
20413.476563	-106.565208
20499.609375	-105.464455
20585.742188	-106.782043
20671.875000	-108.052322
20758.007813	-108.703392
20844.140625	-111.422562
20930.273438	-116.248962
21016.406250	-118.695114
21102.539063	-120.911507
21188.671875	-124.024483
21274.804688	-126.601295
21360.937500	-128.083725
21447.070313	-129.091782
21533.203125	-130.134018
21619.335938	-131.686996
21705.468750	-133.246552
21791.601563	-137.214218
21877.734375	-141.092346
21963.867188	-142.737122
