Frequency (Hz)	Level (dB)
86.132813	-68.506836
172.265625	-66.355614
258.398438	-67.227875
344.531250	-69.259911
430.664063	-71.053894
516.796875	-71.474411
602.929688	-71.673653
689.062500	-72.688797
775.195313	-74.577782
861.328125	-76.835258
947.460938	-79.709961
1033.593750	-84.211617
1119.726563	-82.741280
1205.859375	-74.978447
1291.992188	-70.904297
1378.125000	-69.322891
1464.257813	-70.877106
1550.390625	-73.480690
1636.523438	-73.138641
1722.656250	-70.602821
1808.789063	-70.837540
1894.921875	-70.102776
1981.054688	-67.603027
2067.187500	-68.326096
2153.320313	-67.413734
2239.453125	-67.830132
2325.585938	-70.539948
2411.718750	-72.007393
2497.851563	-71.469475
2583.984375	-69.414146
2670.117188	-68.502022
2756.250000	-67.328018
2842.382813	-64.259659
2928.515625	-63.963036
3014.648438	-67.870880
3100.781250	-72.796509
3186.914063	-78.435959
3273.046875	-89.776772
3359.179688	-79.085411
3445.312500	-73.334229
3531.445313	-71.298775
3617.578125	-70.258797
3703.710938	-69.624458
3789.843750	-68.632584
3875.976563	-67.140450
3962.109375	-64.758354
4048.242188	-65.822128
4134.375000	-62.797527
4220.507813	-59.422253
4306.640625	-59.703300
4392.773438	-60.930023
4478.906250	-63.155354
4565.039063	-64.219261
4651.171875	-63.597702
4737.304688	-62.040958
4823.437500	-60.819813
4909.570313	-59.388165
4995.703125	-57.066429
5081.835938	-55.983677
5167.968750	-59.293488
5254.101563	-65.697670
5340.234375	-69.628967
5426.367188	-69.187927
5512.500000	-69.644905
5598.632813	-72.831017
5684.765625	-73.215881
5770.898438	-70.335426
5857.031250	-70.721107
5943.164063	-74.284019
6029.296875	-70.166603
6115.429688	-67.961075
6201.562500	-67.993271
6287.695313	-66.288261
6373.828125	-65.361656
6459.960938	-69.312691
6546.093750	-76.299950
6632.226563	-86.747086
6718.359375	-80.879799
6804.492188	-77.415993
6890.625000	-76.376389
6976.757813	-76.526154
7062.890625	-77.666710
7149.023438	-79.503548
7235.156250	-79.000999
7321.289063	-76.657951
7407.421875	-76.449821
7493.554688	-78.145576
7579.687500	-81.493965
7665.820313	-86.495361
7751.953125	-86.907700
7838.085938	-84.556824
7924.218750	-85.620224
8010.351563	-83.858757
8096.484375	-82.381622
8182.617188	-80.957695
8268.750000	-80.748459
8354.882813	-82.762993
8441.015625	-87.097466
8527.148438	-94.259682
8613.281250	-92.861938
8699.414063	-91.357567
8785.546875	-88.558128
8871.679688	-83.771538
8957.812500	-79.439949
9043.945313	-78.800446
9130.078125	-79.697449
9216.210938	-81.328102
9302.343750	-82.889183
9388.476563	-83.252281
9474.609375	-84.035866
9560.742188	-84.575531
9646.875000	-84.373024
9733.007813	-85.455406
9819.140625	-86.228050
9905.273438	-84.704109
9991.406250	-82.567261
10077.539063	-80.735718
10163.671875	-79.235809
10249.804688	-77.948128
10335.937500	-75.063698
10422.070313	-71.615227
10508.203125	-68.962151
10594.335938	-66.943581
10680.468750	-65.586662
10766.601563	-66.933472
10852.734375	-71.919655
10938.867188	-78.596817
11025.000000	-85.227684
11111.132813	-96.857735
11197.265625	-84.964699
11283.398438	-82.108521
11369.531250	-82.837769
11455.664063	-84.698830
11541.796875	-85.868690
11627.929688	-86.825745
11714.062500	-88.694695
11800.195313	-88.545082
11886.328125	-82.992348
11972.460938	-79.842232
12058.593750	-79.437965
12144.726563	-79.578003
12230.859375	-79.470337
12316.992188	-81.048058
12403.125000	-84.133377
12489.257813	-86.506821
12575.390625	-87.539856
12661.523438	-87.435570
12747.656250	-86.137596
12833.789063	-86.142838
12919.921875	-89.242599
13006.054688	-95.132851
13092.187500	-107.057571
13178.320313	-102.106926
13264.453125	-97.310265
13350.585938	-96.018700
13436.718750	-94.391464
13522.851563	-92.894127
13608.984375	-92.987579
13695.117188	-94.228767
13781.250000	-95.375336
13867.382813	-95.440971
13953.515625	-95.484764
14039.648438	-95.189049
14125.781250	-93.495255
14211.914063	-91.676872
14298.046875	-90.550919
14384.179688	-90.108795
14470.312500	-89.357216
14556.445313	-88.493118
14642.578125	-88.612671
14728.710938	-89.750076
14814.843750	-90.302063
14900.976563	-89.919235
14987.109375	-90.553650
15073.242188	-92.207390
15159.375000	-91.663437
15245.507813	-90.923714
15331.640625	-91.944389
15417.773438	-92.986084
15503.906250	-91.636475
15590.039063	-88.624466
15676.171875	-86.204445
15762.304688	-85.609337
15848.437500	-87.682297
15934.570313	-91.979515
16020.703125	-97.354019
16106.835938	-100.762527
16192.968750	-99.642609
16279.101563	-98.528923
16365.234375	-98.937660
16451.367188	-101.013725
16537.500000	-104.012154
16623.632813	-108.296440
16709.765625	-108.387802
16795.898438	-104.792496
16882.031250	-103.552040
16968.164063	-104.361938
17054.296875	-106.158989
17140.429688	-107.692909
17226.562500	-108.215652
17312.695313	-107.199089
17398.828125	-106.070442
17484.960938	-104.901649
17571.093750	-103.609756
17657.226563	-103.052933
17743.359375	-103.528938
17829.492188	-104.020851
17915.625000	-102.666504
18001.757813	-100.436256
18087.890625	-99.521088
18174.023438	-100.316734
18260.156250	-101.146729
18346.289063	-100.850105
18432.421875	-100.422882
18518.554688	-100.309799
18604.687500	-100.967354
18690.820313	-102.456322
18776.953125	-103.767593
18863.085938	-103.961845
18949.218750	-103.806885
19035.351563	-104.012253
19121.484375	-104.610603
19207.617188	-105.916122
19293.750000	-108.048317
19379.882813	-110.608727
19466.015625	-113.203079
19552.148438	-115.868752
19638.281250	-118.999031
19724.414063	-124.130936
19810.546875	-128.399994
19896.679688	-127.351547
19982.812500	-125.866882
20068.945313	-122.480728
20155.078125	-121.301590
20241.210938	-121.734001
20327.343750	-121.929466
20413.476563	-121.911072
20499.609375	-121.906242
20585.742188	-122.020836
20671.875000	-122.063362
20758.007813	-121.911163
20844.140625	-121.898651
20930.273438	-122.655212
21016.406250	-124.655266
21102.539063	-127.887840
21188.671875	-130.793015
21274.804688	-132.638336
21360.937500	-134.802841
21447.070313	-136.317230
21533.203125	-137.947281
21619.335938	-141.188019
21705.468750	-146.156891
21791.601563	-147.551971
21877.734375	-149.743835
21963.867188	-152.294861
