Frequency (Hz)	Level (dB)
86.132813	-41.136082
172.265625	-43.244610
258.398438	-47.280720
344.531250	-50.499596
430.664063	-52.495079
516.796875	-53.327499
602.929688	-54.391132
689.062500	-55.871090
775.195313	-57.507687
861.328125	-60.129631
947.460938	-62.694557
1033.593750	-58.491413
1119.726563	-56.901806
1205.859375	-55.724098
1291.992188	-57.472492
1378.125000	-61.821598
1464.257813	-64.992790
1550.390625	-63.251034
1636.523438	-63.206024
1722.656250	-61.896191
1808.789063	-62.022617
1894.921875	-67.298820
1981.054688	-57.165554
2067.187500	-51.383900
2153.320313	-51.776764
2239.453125	-55.460407
2325.585938	-62.764778
2411.718750	-63.285328
2497.851563	-59.300632
2583.984375	-59.282925
2670.117188	-63.702652
2756.250000	-54.300495
2842.382813	-49.817669
2928.515625	-54.088902
3014.648438	-61.813705
3100.781250	-58.248032
3186.914063	-56.687332
3273.046875	-53.287979
3359.179688	-45.886936
3445.312500	-43.368729
3531.445313	-48.460674
3617.578125	-58.315262
3703.710938	-58.958847
3789.843750	-68.901443
3875.976563	-72.963623
3962.109375	-70.335030
4048.242188	-70.622398
4134.375000	-69.319969
4220.507813	-76.463905
4306.640625	-67.224037
4392.773438	-58.809639
4478.906250	-55.445961
4565.039063	-56.909622
4651.171875	-62.909420
4737.304688	-69.177895
4823.437500	-69.770248
4909.570313	-65.867004
4995.703125	-62.909115
5081.835938	-53.355728
5167.968750	-48.967861
5254.101563	-46.963245
5340.234375	-45.970341
5426.367188	-47.716446
5512.500000	-52.200726
5598.632813	-56.512199
5684.765625	-57.510021
5770.898438	-54.378605
5857.031250	-51.251987
5943.164063	-52.156570
6029.296875	-58.719379
6115.429688	-66.322357
6201.562500	-68.792046
6287.695313	-68.663483
6373.828125	-73.581795
6459.960938	-69.722816
6546.093750	-66.428085
6632.226563	-63.599274
6718.359375	-62.907169
6804.492188	-61.412895
6890.625000	-61.419739
6976.757813	-63.532879
7062.890625	-63.796291
7149.023438	-62.215492
7235.156250	-59.640362
7321.289063	-58.099728
7407.421875	-57.229515
7493.554688	-53.337425
7579.687500	-50.492485
7665.820313	-49.048107
7751.953125	-50.603203
7838.085938	-56.951862
7924.218750	-67.825485
8010.351563	-70.425186
8096.484375	-73.621262
8182.617188	-73.471764
8268.750000	-68.772896
8354.882813	-69.040840
8441.015625	-71.819664
8527.148438	-74.556618
8613.281250	-68.143013
8699.414063	-63.407841
8785.546875	-64.669144
8871.679688	-67.139618
8957.812500	-67.705170
9043.945313	-69.874931
9130.078125	-69.921852
9216.210938	-70.006966
9302.343750	-71.687782
9388.476563	-74.003799
9474.609375	-77.394844
9560.742188	-80.373985
9646.875000	-79.355446
9733.007813	-76.783257
9819.140625	-75.379990
9905.273438	-76.059479
9991.406250	-76.597115
10077.539063	-78.215477
10163.671875	-83.052490
10249.804688	-87.356194
10335.937500	-88.822739
10422.070313	-89.124527
10508.203125	-78.869911
10594.335938	-73.072853
10680.468750	-72.637665
10766.601563	-76.591583
10852.734375	-88.314789
10938.867188	-79.576424
11025.000000	-77.598648
11111.132813	-79.260742
11197.265625	-80.838699
11283.398438	-82.951614
11369.531250	-84.664299
11455.664063	-87.117088
11541.796875	-93.516510
11627.929688	-84.671638
11714.062500	-79.860138
11800.195313	-77.621323
11886.328125	-75.075676
11972.460938	-71.899551
12058.593750	-70.007545
12144.726563	-70.470215
12230.859375	-74.194717
12316.992188	-79.283020
12403.125000	-80.581512
12489.257813	-81.811096
12575.390625	-86.874321
12661.523438	-89.377083
12747.656250	-83.705444
12833.789063	-80.275185
12919.921875	-78.362968
13006.054688	-78.707489
13092.187500	-80.936073
13178.320313	-84.210312
13264.453125	-89.276749
13350.585938	-92.957199
13436.718750	-86.437904
13522.851563	-84.771729
13608.984375	-85.650520
13695.117188	-85.248131
13781.250000	-83.019180
13867.382813	-80.284866
13953.515625	-79.346046
14039.648438	-79.241074
14125.781250	-78.516403
14211.914063	-78.997345
14298.046875	-80.589371
14384.179688	-81.909081
14470.312500	-82.818520
14556.445313	-82.800049
14642.578125	-85.559944
14728.710938	-89.887032
14814.843750	-84.649742
14900.976563	-84.114212
14987.109375	-89.529655
15073.242188	-97.059715
15159.375000	-86.709946
15245.507813	-83.860336
15331.640625	-82.252304
15417.773438	-82.037025
15503.906250	-84.282707
15590.039063	-85.590111
15676.171875	-82.425560
15762.304688	-81.150940
15848.437500	-82.955666
15934.570313	-85.582787
16020.703125	-87.053207
16106.835938	-89.557495
16192.968750	-94.492592
16279.101563	-101.438141
16365.234375	-100.988258
16451.367188	-98.764130
16537.500000	-99.763474
16623.632813	-103.763176
16709.765625	-107.671852
16795.898438	-109.423409
16882.031250	-111.590881
16968.164063	-108.391220
17054.296875	-113.632469
17140.429688	-100.667290
17226.562500	-96.789810
17312.695313	-96.908913
17398.828125	-97.340614
17484.960938	-96.505310
17571.093750	-95.065369
17657.226563	-95.574501
17743.359375	-94.319016
17829.492188	-90.162766
17915.625000	-86.968582
18001.757813	-85.121216
18087.890625	-84.882767
18174.023438	-85.628662
18260.156250	-86.748238
18346.289063	-87.538956
18432.421875	-88.244461
18518.554688	-89.898849
18604.687500	-90.328529
18690.820313	-90.115234
18776.953125	-90.292953
18863.085938	-91.330360
18949.218750	-92.173164
19035.351563	-90.755432
19121.484375	-91.841995
19207.617188	-94.577637
19293.750000	-94.727409
19379.882813	-94.324600
19466.015625	-95.059814
19552.148438	-97.381882
19638.281250	-99.209114
19724.414063	-100.881157
19810.546875	-102.388832
19896.679688	-107.033539
19982.812500	-116.056717
20068.945313	-108.865685
20155.078125	-109.345398
20241.210938	-113.278893
20327.343750	-117.371834
20413.476563	-118.528595
20499.609375	-122.629044
20585.742188	-123.411758
20671.875000	-118.225349
20758.007813	-118.419418
20844.140625	-123.049896
20930.273438	-129.588928
21016.406250	-128.799469
21102.539063	-123.802254
21188.671875	-124.818970
21274.804688	-126.401573
21360.937500	-127.323570
21447.070313	-131.152756
21533.203125	-130.580444
21619.335938	-130.253113
21705.468750	-135.380676
21791.601563	-140.408722
21877.734375	-137.583893
21963.867188	-140.658646
