Frequency (Hz)	Level (dB)
86.132813	-40.341778
172.265625	-43.726089
258.398438	-47.015564
344.531250	-49.911270
430.664063	-52.096642
516.796875	-52.841732
602.929688	-53.578102
689.062500	-54.966164
775.195313	-56.375523
861.328125	-57.340382
947.460938	-59.169273
1033.593750	-60.801426
1119.726563	-58.989155
1205.859375	-57.509796
1291.992188	-58.796082
1378.125000	-59.472244
1464.257813	-52.183659
1550.390625	-48.865482
1636.523438	-54.720440
1722.656250	-59.840233
1808.789063	-56.569180
1894.921875	-57.239532
1981.054688	-52.645870
2067.187500	-51.468258
2153.320313	-58.096806
2239.453125	-56.746220
2325.585938	-62.862190
2411.718750	-68.291718
2497.851563	-59.751362
2583.984375	-57.446774
2670.117188	-58.984390
2756.250000	-54.752567
2842.382813	-52.610619
2928.515625	-54.444077
3014.648438	-57.788483
3100.781250	-64.301582
3186.914063	-70.752617
3273.046875	-59.510098
3359.179688	-47.281460
3445.312500	-42.605911
3531.445313	-46.474190
3617.578125	-54.999615
3703.710938	-54.978863
3789.843750	-57.471874
3875.976563	-57.657127
3962.109375	-53.912022
4048.242188	-48.825672
4134.375000	-47.602657
4220.507813	-52.168316
4306.640625	-57.056217
4392.773438	-55.788292
4478.906250	-50.107773
4565.039063	-51.728497
4651.171875	-57.444759
4737.304688	-58.578930
4823.437500	-55.812241
4909.570313	-55.161079
4995.703125	-54.453110
5081.835938	-48.397560
5167.968750	-49.443176
5254.101563	-55.082199
5340.234375	-47.808895
5426.367188	-46.315784
5512.500000	-50.573086
5598.632813	-49.068737
5684.765625	-46.950630
5770.898438	-42.261242
5857.031250	-37.121643
5943.164063	-36.831345
6029.296875	-41.749500
6115.429688	-49.392673
6201.562500	-55.018166
6287.695313	-58.556232
6373.828125	-60.176334
6459.960938	-61.460361
6546.093750	-63.306419
6632.226563	-59.932980
6718.359375	-62.460247
6804.492188	-62.472500
6890.625000	-63.792252
6976.757813	-73.158394
7062.890625	-71.304726
7149.023438	-73.280090
7235.156250	-75.943787
7321.289063	-73.082672
7407.421875	-66.457588
7493.554688	-63.028236
7579.687500	-62.660805
7665.820313	-55.895706
7751.953125	-54.697811
7838.085938	-60.465237
7924.218750	-63.279213
8010.351563	-61.737370
8096.484375	-60.655449
8182.617188	-60.553749
8268.750000	-62.782669
8354.882813	-65.347908
8441.015625	-67.734650
8527.148438	-67.317223
8613.281250	-65.272270
8699.414063	-59.720764
8785.546875	-57.538845
8871.679688	-57.396275
8957.812500	-60.066544
9043.945313	-64.550674
9130.078125	-63.439522
9216.210938	-65.396736
9302.343750	-68.167145
9388.476563	-67.441742
9474.609375	-64.957863
9560.742188	-62.078911
9646.875000	-60.788063
9733.007813	-63.996868
9819.140625	-71.367813
9905.273438	-78.885040
9991.406250	-78.787071
10077.539063	-75.368309
10163.671875	-69.394493
10249.804688	-67.139175
10335.937500	-69.147156
10422.070313	-67.586899
10508.203125	-65.257828
10594.335938	-63.678452
10680.468750	-65.157440
10766.601563	-69.647858
10852.734375	-73.555290
10938.867188	-75.614464
11025.000000	-75.945816
11111.132813	-75.439240
11197.265625	-75.943115
11283.398438	-78.690063
11369.531250	-79.165909
11455.664063	-75.317886
11541.796875	-71.419525
11627.929688	-73.103043
11714.062500	-74.109138
11800.195313	-70.370193
11886.328125	-66.561073
11972.460938	-64.152908
12058.593750	-60.158218
12144.726563	-58.879120
12230.859375	-62.854027
12316.992188	-67.955360
12403.125000	-72.573357
12489.257813	-76.216484
12575.390625	-79.444412
12661.523438	-85.260612
12747.656250	-89.409317
12833.789063	-89.123909
12919.921875	-87.908180
13006.054688	-85.055092
13092.187500	-84.033005
13178.320313	-83.937729
13264.453125	-85.824860
13350.585938	-88.625748
13436.718750	-87.386902
13522.851563	-88.053749
13608.984375	-85.897659
13695.117188	-80.521065
13781.250000	-76.264259
13867.382813	-74.966019
13953.515625	-75.856339
14039.648438	-76.798447
14125.781250	-74.521133
14211.914063	-74.696953
14298.046875	-76.217316
14384.179688	-79.495445
14470.312500	-82.425346
14556.445313	-82.240356
14642.578125	-83.714951
14728.710938	-82.121307
14814.843750	-79.517235
14900.976563	-80.093842
14987.109375	-80.515526
15073.242188	-77.379265
15159.375000	-75.991119
15245.507813	-78.129745
15331.640625	-78.045258
15417.773438	-74.772476
15503.906250	-73.835297
15590.039063	-75.671867
15676.171875	-78.697151
15762.304688	-80.042328
15848.437500	-79.503128
15934.570313	-79.401337
16020.703125	-79.705368
16106.835938	-79.785675
16192.968750	-80.518997
16279.101563	-82.779930
16365.234375	-85.504112
16451.367188	-87.050079
16537.500000	-86.244698
16623.632813	-85.483765
16709.765625	-84.011147
16795.898438	-83.608826
16882.031250	-83.991554
16968.164063	-84.824356
17054.296875	-84.144516
17140.429688	-82.212189
17226.562500	-81.043663
17312.695313	-80.632805
17398.828125	-82.204857
17484.960938	-84.308319
17571.093750	-84.621147
17657.226563	-83.934319
17743.359375	-82.305725
17829.492188	-80.038826
17915.625000	-77.012428
18001.757813	-74.864761
18087.890625	-75.376503
18174.023438	-78.099319
18260.156250	-79.092514
18346.289063	-80.214050
18432.421875	-82.851692
18518.554688	-85.882072
18604.687500	-89.366425
18690.820313	-94.110626
18776.953125	-95.623528
18863.085938	-92.405632
18949.218750	-89.127045
19035.351563	-86.460846
19121.484375	-85.110703
19207.617188	-85.710709
19293.750000	-87.307777
19379.882813	-89.338966
19466.015625	-90.640358
19552.148438	-91.798805
19638.281250	-93.235550
19724.414063	-93.799072
19810.546875	-94.494148
19896.679688	-96.903999
19982.812500	-98.660187
20068.945313	-99.666367
20155.078125	-101.021286
20241.210938	-103.659454
20327.343750	-105.421585
20413.476563	-107.005905
20499.609375	-111.978630
20585.742188	-117.322205
20671.875000	-116.850067
20758.007813	-116.987495
20844.140625	-120.048157
20930.273438	-120.714500
21016.406250	-119.485260
21102.539063	-120.370010
21188.671875	-121.713318
21274.804688	-118.355827
21360.937500	-118.789940
21447.070313	-120.434082
21533.203125	-123.376244
21619.335938	-125.938644
21705.468750	-128.547241
21791.601563	-128.602066
21877.734375	-128.347122
21963.867188	-131.448608
