Frequency (Hz)	Level (dB)
86.132813	-56.236347
172.265625	-59.348949
258.398438	-60.632450
344.531250	-61.472679
430.664063	-62.160122
516.796875	-62.601894
602.929688	-63.629230
689.062500	-65.651939
775.195313	-66.128235
861.328125	-60.237782
947.460938	-56.412159
1033.593750	-61.153965
1119.726563	-68.762207
1205.859375	-67.513466
1291.992188	-61.669720
1378.125000	-58.748997
1464.257813	-60.311028
1550.390625	-60.434029
1636.523438	-62.227940
1722.656250	-63.969887
1808.789063	-63.656776
1894.921875	-63.639004
1981.054688	-61.089260
2067.187500	-57.597382
2153.320313	-58.795208
2239.453125	-60.824345
2325.585938	-56.579281
2411.718750	-60.880287
2497.851563	-67.055550
2583.984375	-67.569160
2670.117188	-68.778061
2756.250000	-67.269753
2842.382813	-70.756828
2928.515625	-75.417519
3014.648438	-68.256516
3100.781250	-62.587055
3186.914063	-56.707470
3273.046875	-58.514595
3359.179688	-60.777992
3445.312500	-57.598389
3531.445313	-60.102329
3617.578125	-68.177307
3703.710938	-67.508575
3789.843750	-68.129318
3875.976563	-62.314644
3962.109375	-55.376385
4048.242188	-54.711094
4134.375000	-56.590759
4220.507813	-59.789658
4306.640625	-62.868301
4392.773438	-63.836525
4478.906250	-66.812721
4565.039063	-72.653671
4651.171875	-75.305206
4737.304688	-76.290703
4823.437500	-78.165703
4909.570313	-76.552887
4995.703125	-72.067642
5081.835938	-70.021553
5167.968750	-73.618942
5254.101563	-78.022301
5340.234375	-77.018227
5426.367188	-73.396347
5512.500000	-74.001724
5598.632813	-77.437424
5684.765625	-76.385674
5770.898438	-74.533363
5857.031250	-73.672279
5943.164063	-67.900505
6029.296875	-67.810165
6115.429688	-77.315773
6201.562500	-77.241676
6287.695313	-73.853874
6373.828125	-74.817276
6459.960938	-72.628967
6546.093750	-75.845451
6632.226563	-81.469818
6718.359375	-80.850151
6804.492188	-82.965294
6890.625000	-76.291588
6976.757813	-77.648598
7062.890625	-80.958237
7149.023438	-75.585945
7235.156250	-73.906075
7321.289063	-72.403641
7407.421875	-69.429008
7493.554688	-68.303200
7579.687500	-70.596275
7665.820313	-72.904739
7751.953125	-73.026360
7838.085938	-77.496773
7924.218750	-78.183250
8010.351563	-75.700462
8096.484375	-71.263458
8182.617188	-70.416031
8268.750000	-70.026146
8354.882813	-69.184044
8441.015625	-71.491821
8527.148438	-75.529495
8613.281250	-74.218796
8699.414063	-76.408257
8785.546875	-78.149437
8871.679688	-79.836258
8957.812500	-81.196472
9043.945313	-79.100349
9130.078125	-78.166779
9216.210938	-79.728928
9302.343750	-77.640144
9388.476563	-81.304085
9474.609375	-86.651512
9560.742188	-87.616470
9646.875000	-86.016472
9733.007813	-89.279137
9819.140625	-89.961380
9905.273438	-85.949997
9991.406250	-85.946449
10077.539063	-86.660515
10163.671875	-84.152809
10249.804688	-82.072037
10335.937500	-78.732590
10422.070313	-76.308929
10508.203125	-77.562592
10594.335938	-79.813683
10680.468750	-77.931175
10766.601563	-78.369522
10852.734375	-80.369980
10938.867188	-80.266815
11025.000000	-77.833733
11111.132813	-77.732147
11197.265625	-79.903908
11283.398438	-80.543839
11369.531250	-79.326080
11455.664063	-78.316589
11541.796875	-77.227463
11627.929688	-76.155045
11714.062500	-75.441154
11800.195313	-76.009026
11886.328125	-75.069183
11972.460938	-74.887985
12058.593750	-74.144524
12144.726563	-71.425507
12230.859375	-70.455513
12316.992188	-72.371109
12403.125000	-73.798515
12489.257813	-74.815765
12575.390625	-76.850975
12661.523438	-80.385475
12747.656250	-81.567001
12833.789063	-81.133781
12919.921875	-80.716637
13006.054688	-80.947647
13092.187500	-82.416298
13178.320313	-82.418350
13264.453125	-80.537590
13350.585938	-80.724144
13436.718750	-80.843201
13522.851563	-80.947800
13608.984375	-82.099663
13695.117188	-82.004196
13781.250000	-80.771912
13867.382813	-83.281693
13953.515625	-84.691040
14039.648438	-83.483818
14125.781250	-85.702515
14211.914063	-89.753334
14298.046875	-90.198677
14384.179688	-89.698677
14470.312500	-87.413727
14556.445313	-85.706360
14642.578125	-86.249809
14728.710938	-88.583145
14814.843750	-87.886208
14900.976563	-85.646263
14987.109375	-84.711487
15073.242188	-85.580048
15159.375000	-84.747925
15245.507813	-84.302162
15331.640625	-85.164490
15417.773438	-84.363365
15503.906250	-83.197205
15590.039063	-82.223137
15676.171875	-82.702850
15762.304688	-82.882721
15848.437500	-83.626892
15934.570313	-83.709000
16020.703125	-86.033310
16106.835938	-89.505447
16192.968750	-91.727661
16279.101563	-93.682037
16365.234375	-94.004562
16451.367188	-91.951904
16537.500000	-89.622078
16623.632813	-88.650856
16709.765625	-86.090515
16795.898438	-86.214760
16882.031250	-89.239197
16968.164063	-92.143974
17054.296875	-94.060440
17140.429688	-96.220757
17226.562500	-95.330856
17312.695313	-91.622292
17398.828125	-90.984703
17484.960938	-91.772514
17571.093750	-91.858376
17657.226563	-95.078812
17743.359375	-93.654434
17829.492188	-94.610245
17915.625000	-92.902328
18001.757813	-90.413734
18087.890625	-86.698372
18174.023438	-85.048187
18260.156250	-85.599594
18346.289063	-86.757774
18432.421875	-88.271194
18518.554688	-89.632339
18604.687500	-89.413567
18690.820313	-88.613739
18776.953125	-89.724182
18863.085938	-95.138794
18949.218750	-102.051765
19035.351563	-103.166367
19121.484375	-101.216667
19207.617188	-99.789169
19293.750000	-96.554245
19379.882813	-96.125809
19466.015625	-96.237007
19552.148438	-95.430710
19638.281250	-98.286140
19724.414063	-98.489502
19810.546875	-98.553642
19896.679688	-98.886658
19982.812500	-98.441818
20068.945313	-98.564621
20155.078125	-98.515129
20241.210938	-101.783844
20327.343750	-104.259079
20413.476563	-105.533791
20499.609375	-104.858566
20585.742188	-104.515862
20671.875000	-106.185898
20758.007813	-109.860733
20844.140625	-111.305107
20930.273438	-114.286613
21016.406250	-115.648552
21102.539063	-117.065514
21188.671875	-118.515541
21274.804688	-119.299927
21360.937500	-124.179169
21447.070313	-135.175674
21533.203125	-127.490883
21619.335938	-128.690826
21705.468750	-131.236115
21791.601563	-131.701477
21877.734375	-133.366455
21963.867188	-132.970551
