Frequency (Hz)	Level (dB)
86.132813	-55.248386
172.265625	-57.430828
258.398438	-61.231171
344.531250	-61.673546
430.664063	-62.667290
516.796875	-64.829964
602.929688	-63.878510
689.062500	-63.131592
775.195313	-61.128799
861.328125	-55.285267
947.460938	-52.535488
1033.593750	-56.333851
1119.726563	-58.395298
1205.859375	-53.892780
1291.992188	-51.939232
1378.125000	-48.474365
1464.257813	-47.572792
1550.390625	-53.911480
1636.523438	-56.686962
1722.656250	-55.931160
1808.789063	-55.498875
1894.921875	-55.297791
1981.054688	-52.843300
2067.187500	-51.976921
2153.320313	-54.282364
2239.453125	-59.193501
2325.585938	-63.351830
2411.718750	-62.322552
2497.851563	-61.868343
2583.984375	-56.916794
2670.117188	-53.206348
2756.250000	-55.946510
2842.382813	-64.251930
2928.515625	-67.169586
3014.648438	-64.141960
3100.781250	-63.466370
3186.914063	-62.596622
3273.046875	-61.428398
3359.179688	-60.299400
3445.312500	-59.649342
3531.445313	-63.496586
3617.578125	-71.421463
3703.710938	-80.126198
3789.843750	-81.424599
3875.976563	-79.575912
3962.109375	-75.495689
4048.242188	-72.488441
4134.375000	-70.249886
4220.507813	-63.049873
4306.640625	-61.810581
4392.773438	-65.932060
4478.906250	-73.388954
4565.039063	-74.986427
4651.171875	-71.566208
4737.304688	-69.227859
4823.437500	-66.653526
4909.570313	-63.020786
4995.703125	-59.900837
5081.835938	-59.875996
5167.968750	-63.472816
5254.101563	-67.234917
5340.234375	-69.547890
5426.367188	-59.546608
5512.500000	-59.861481
5598.632813	-64.752968
5684.765625	-70.797142
5770.898438	-69.757584
5857.031250	-60.596378
5943.164063	-56.228748
6029.296875	-56.687496
6115.429688	-62.183620
6201.562500	-68.226639
6287.695313	-71.339882
6373.828125	-71.806305
6459.960938	-72.276619
6546.093750	-76.441254
6632.226563	-82.482491
6718.359375	-75.062538
6804.492188	-70.281570
6890.625000	-70.332512
6976.757813	-70.479874
7062.890625	-66.203369
7149.023438	-66.248734
7235.156250	-68.721588
7321.289063	-74.894981
7407.421875	-77.286079
7493.554688	-79.968864
7579.687500	-68.933487
7665.820313	-62.309456
7751.953125	-61.825874
7838.085938	-64.988342
7924.218750	-68.526535
8010.351563	-68.282364
8096.484375	-64.972755
8182.617188	-62.566765
8268.750000	-61.440948
8354.882813	-61.159237
8441.015625	-63.337349
8527.148438	-68.263222
8613.281250	-76.970367
8699.414063	-72.130020
8785.546875	-69.389862
8871.679688	-67.213013
8957.812500	-66.696648
9043.945313	-68.950592
9130.078125	-75.266663
9216.210938	-75.869522
9302.343750	-77.519783
9388.476563	-80.543900
9474.609375	-77.390747
9560.742188	-75.589928
9646.875000	-75.208328
9733.007813	-77.899704
9819.140625	-84.672974
9905.273438	-81.315025
9991.406250	-79.833267
10077.539063	-81.468086
10163.671875	-82.724388
10249.804688	-81.299156
10335.937500	-79.004349
10422.070313	-82.107414
10508.203125	-92.322762
10594.335938	-80.195572
10680.468750	-76.545853
10766.601563	-75.456306
10852.734375	-76.175705
10938.867188	-80.674606
11025.000000	-86.815399
11111.132813	-85.395615
11197.265625	-85.066895
11283.398438	-85.172569
11369.531250	-84.615585
11455.664063	-81.213142
11541.796875	-80.081001
11627.929688	-82.403038
11714.062500	-86.170410
11800.195313	-88.284431
11886.328125	-85.944237
11972.460938	-82.676147
12058.593750	-84.305656
12144.726563	-80.261391
12230.859375	-80.186928
12316.992188	-87.448250
12403.125000	-95.724648
12489.257813	-90.371956
12575.390625	-87.530434
12661.523438	-87.855766
12747.656250	-92.608002
12833.789063	-82.697296
12919.921875	-80.409393
13006.054688	-80.212471
13092.187500	-79.967834
13178.320313	-83.044739
13264.453125	-87.757286
13350.585938	-91.902855
13436.718750	-98.780670
13522.851563	-92.276535
13608.984375	-92.869247
13695.117188	-101.110550
13781.250000	-94.929718
13867.382813	-90.953781
13953.515625	-91.355034
14039.648438	-93.442123
14125.781250	-97.922859
14211.914063	-97.128998
14298.046875	-93.289246
14384.179688	-91.593872
14470.312500	-90.281685
14556.445313	-92.722961
14642.578125	-92.017174
14728.710938	-91.019386
14814.843750	-92.827301
14900.976563	-92.224060
14987.109375	-90.367111
15073.242188	-91.030838
15159.375000	-91.114624
15245.507813	-93.707588
15331.640625	-99.064690
15417.773438	-91.511482
15503.906250	-89.395927
15590.039063	-90.462723
15676.171875	-95.169701
15762.304688	-99.958099
15848.437500	-96.348526
15934.570313	-101.943932
16020.703125	-95.371559
16106.835938	-98.765869
16192.968750	-97.413902
16279.101563	-92.533455
16365.234375	-94.815239
16451.367188	-99.172623
16537.500000	-95.785881
16623.632813	-97.591278
16709.765625	-96.932198
16795.898438	-94.326172
16882.031250	-96.800041
16968.164063	-95.777023
17054.296875	-91.903694
17140.429688	-94.047989
17226.562500	-100.398842
17312.695313	-96.162506
17398.828125	-95.295227
17484.960938	-97.150024
17571.093750	-104.006744
17657.226563	-100.650436
17743.359375	-94.874260
17829.492188	-92.240692
17915.625000	-93.781372
18001.757813	-97.975410
18087.890625	-92.808388
18174.023438	-91.153679
18260.156250	-93.157120
18346.289063	-95.235954
18432.421875	-98.132912
18518.554688	-105.008827
18604.687500	-110.397270
18690.820313	-104.306641
18776.953125	-97.500305
18863.085938	-94.615677
18949.218750	-94.941978
19035.351563	-95.622871
19121.484375	-94.359840
19207.617188	-93.972832
19293.750000	-96.366547
19379.882813	-98.423828
19466.015625	-98.627754
19552.148438	-98.696800
19638.281250	-97.355515
19724.414063	-97.156265
19810.546875	-99.001793
19896.679688	-103.307587
19982.812500	-110.403000
20068.945313	-121.178856
20155.078125	-122.218185
20241.210938	-121.108917
20327.343750	-114.347298
20413.476563	-112.180977
20499.609375	-116.228813
20585.742188	-121.676979
20671.875000	-119.539215
20758.007813	-116.176826
20844.140625	-114.523727
20930.273438	-114.317612
21016.406250	-115.716782
21102.539063	-119.624519
21188.671875	-124.813225
21274.804688	-128.660156
21360.937500	-135.061859
21447.070313	-131.799286
21533.203125	-131.876373
21619.335938	-135.611725
21705.468750	-133.310272
21791.601563	-134.400208
21877.734375	-143.176178
21963.867188	-147.489822
