Frequency (Hz)	Level (dB)
86.132813	-53.686848
172.265625	-58.081192
258.398438	-59.254375
344.531250	-61.193180
430.664063	-61.940399
516.796875	-61.609188
602.929688	-61.597996
689.062500	-62.120644
775.195313	-62.865032
861.328125	-64.158974
947.460938	-64.817513
1033.593750	-65.138878
1119.726563	-65.195488
1205.859375	-60.753651
1291.992188	-58.878910
1378.125000	-58.733028
1464.257813	-61.266327
1550.390625	-65.382736
1636.523438	-67.721504
1722.656250	-67.186775
1808.789063	-62.544292
1894.921875	-60.899822
1981.054688	-62.073757
2067.187500	-61.615879
2153.320313	-57.386238
2239.453125	-54.565186
2325.585938	-57.569939
2411.718750	-59.861073
2497.851563	-59.514824
2583.984375	-58.843285
2670.117188	-57.725464
2756.250000	-56.529522
2842.382813	-58.851433
2928.515625	-59.278393
3014.648438	-61.196850
3100.781250	-66.205490
3186.914063	-68.686684
3273.046875	-69.294998
3359.179688	-71.060898
3445.312500	-67.456726
3531.445313	-64.939339
3617.578125	-62.794777
3703.710938	-60.586349
3789.843750	-60.741512
3875.976563	-65.341995
3962.109375	-60.452793
4048.242188	-56.863655
4134.375000	-59.360569
4220.507813	-59.835384
4306.640625	-54.975170
4392.773438	-55.946594
4478.906250	-57.628185
4565.039063	-58.570442
4651.171875	-58.210804
4737.304688	-57.390949
4823.437500	-55.222836
4909.570313	-51.230259
4995.703125	-49.366859
5081.835938	-48.943111
5167.968750	-42.850025
5254.101563	-43.633198
5340.234375	-51.223248
5426.367188	-54.826546
5512.500000	-57.388657
5598.632813	-61.403893
5684.765625	-64.941628
5770.898438	-66.213333
5857.031250	-64.435036
5943.164063	-64.458466
6029.296875	-63.118721
6115.429688	-62.048359
6201.562500	-63.152565
6287.695313	-63.058235
6373.828125	-60.071690
6459.960938	-59.822666
6546.093750	-64.154610
6632.226563	-68.106728
6718.359375	-68.926270
6804.492188	-68.727890
6890.625000	-68.015259
6976.757813	-67.156898
7062.890625	-64.052307
7149.023438	-61.788471
7235.156250	-63.405640
7321.289063	-65.686996
7407.421875	-69.223106
7493.554688	-66.758575
7579.687500	-65.049576
7665.820313	-68.848679
7751.953125	-70.065811
7838.085938	-64.626816
7924.218750	-62.949226
8010.351563	-66.446960
8096.484375	-70.824753
8182.617188	-74.264160
8268.750000	-78.169426
8354.882813	-80.765175
8441.015625	-84.172150
8527.148438	-85.545868
8613.281250	-82.446877
8699.414063	-74.744324
8785.546875	-71.624977
8871.679688	-71.041016
8957.812500	-71.111176
9043.945313	-75.349609
9130.078125	-72.446396
9216.210938	-70.805519
9302.343750	-73.820000
9388.476563	-72.641464
9474.609375	-72.406036
9560.742188	-70.253479
9646.875000	-71.645973
9733.007813	-73.779518
9819.140625	-74.328148
9905.273438	-75.930328
9991.406250	-76.655075
10077.539063	-72.350662
10163.671875	-67.803925
10249.804688	-67.141190
10335.937500	-68.509544
10422.070313	-68.181396
10508.203125	-65.506447
10594.335938	-61.864468
10680.468750	-58.700462
10766.601563	-60.588329
10852.734375	-67.175819
10938.867188	-70.894836
11025.000000	-72.979294
11111.132813	-76.718330
11197.265625	-83.156120
11283.398438	-84.050011
11369.531250	-78.819618
11455.664063	-77.000000
11541.796875	-77.628479
11627.929688	-76.376976
11714.062500	-71.902710
11800.195313	-70.122299
11886.328125	-71.127884
11972.460938	-71.757118
12058.593750	-70.247025
12144.726563	-71.259354
12230.859375	-73.534492
12316.992188	-75.840370
12403.125000	-75.660309
12489.257813	-75.963852
12575.390625	-76.858017
12661.523438	-76.144684
12747.656250	-76.601624
12833.789063	-77.057854
12919.921875	-78.177895
13006.054688	-79.757088
13092.187500	-79.379860
13178.320313	-78.617073
13264.453125	-76.727119
13350.585938	-77.389366
13436.718750	-79.769234
13522.851563	-82.771912
13608.984375	-85.648979
13695.117188	-85.286034
13781.250000	-83.991096
13867.382813	-82.999153
13953.515625	-82.987595
14039.648438	-85.123459
14125.781250	-87.420738
14211.914063	-86.795959
14298.046875	-82.881470
14384.179688	-79.631233
14470.312500	-79.967178
14556.445313	-81.142426
14642.578125	-79.203072
14728.710938	-79.952011
14814.843750	-81.085892
14900.976563	-79.471619
14987.109375	-76.262947
15073.242188	-74.306236
15159.375000	-74.777588
15245.507813	-76.984100
15331.640625	-80.959267
15417.773438	-86.295959
15503.906250	-89.410011
15590.039063	-83.985626
15676.171875	-80.285164
15762.304688	-77.370743
15848.437500	-78.184250
15934.570313	-84.137505
16020.703125	-89.826912
16106.835938	-91.779167
16192.968750	-89.235832
16279.101563	-84.272942
16365.234375	-83.416702
16451.367188	-84.827629
16537.500000	-87.066414
16623.632813	-87.063446
16709.765625	-83.429131
16795.898438	-81.656883
16882.031250	-80.381744
16968.164063	-79.765221
17054.296875	-81.258545
17140.429688	-83.513428
17226.562500	-88.886688
17312.695313	-92.527534
17398.828125	-89.570526
17484.960938	-88.916824
17571.093750	-87.630867
17657.226563	-87.405006
17743.359375	-86.715744
17829.492188	-86.235336
17915.625000	-83.769958
18001.757813	-82.430161
18087.890625	-83.034599
18174.023438	-83.392548
18260.156250	-82.830872
18346.289063	-82.833939
18432.421875	-82.916428
18518.554688	-84.835655
18604.687500	-85.445839
18690.820313	-85.516418
18776.953125	-85.101578
18863.085938	-83.248116
18949.218750	-81.883942
19035.351563	-81.776535
19121.484375	-84.689598
19207.617188	-89.076340
19293.750000	-94.964729
19379.882813	-98.644646
19466.015625	-97.099251
19552.148438	-97.113976
19638.281250	-99.400330
19724.414063	-100.084106
19810.546875	-96.713379
19896.679688	-94.628998
19982.812500	-93.142128
20068.945313	-92.842461
20155.078125	-93.787407
20241.210938	-94.724861
20327.343750	-96.794930
20413.476563	-99.370895
20499.609375	-100.669296
20585.742188	-102.042870
20671.875000	-101.037476
20758.007813	-100.955940
20844.140625	-101.527451
20930.273438	-102.174706
21016.406250	-104.488045
21102.539063	-107.363167
21188.671875	-108.601028
21274.804688	-111.033958
21360.937500	-113.997643
21447.070313	-117.136986
21533.203125	-119.417244
21619.335938	-124.550636
21705.468750	-131.468689
21791.601563	-129.553207
21877.734375	-132.403442
21963.867188	-139.774551
