Frequency (Hz)	Level (dB)
86.132813	-64.928093
172.265625	-63.541641
258.398438	-66.167824
344.531250	-68.399231
430.664063	-71.233978
516.796875	-71.740814
602.929688	-72.204681
689.062500	-73.281212
775.195313	-74.951828
861.328125	-77.860260
947.460938	-76.543182
1033.593750	-74.755638
1119.726563	-76.189445
1205.859375	-73.960564
1291.992188	-71.729401
1378.125000	-70.453331
1464.257813	-71.824471
1550.390625	-72.614304
1636.523438	-69.808983
1722.656250	-69.587364
1808.789063	-75.253311
1894.921875	-76.064606
1981.054688	-80.897293
2067.187500	-80.477882
2153.320313	-71.042519
2239.453125	-63.822582
2325.585938	-64.979538
2411.718750	-68.422180
2497.851563	-66.886871
2583.984375	-64.363327
2670.117188	-60.128838
2756.250000	-59.667534
2842.382813	-66.708313
2928.515625	-68.816704
3014.648438	-70.816017
3100.781250	-74.194595
3186.914063	-78.332916
3273.046875	-78.564384
3359.179688	-77.916603
3445.312500	-78.803993
3531.445313	-76.352928
3617.578125	-70.573738
3703.710938	-64.953789
3789.843750	-61.836399
3875.976563	-62.948387
3962.109375	-68.592346
4048.242188	-68.480888
4134.375000	-70.001884
4220.507813	-73.073013
4306.640625	-67.629211
4392.773438	-66.517319
4478.906250	-70.587723
4565.039063	-75.642181
4651.171875	-74.023361
4737.304688	-70.509125
4823.437500	-65.742752
4909.570313	-60.025249
4995.703125	-58.160610
5081.835938	-54.373234
5167.968750	-48.607212
5254.101563	-49.988903
5340.234375	-59.548805
5426.367188	-62.378735
5512.500000	-66.604370
5598.632813	-70.142311
5684.765625	-69.511734
5770.898438	-64.994102
5857.031250	-64.339394
5943.164063	-67.336205
6029.296875	-69.102280
6115.429688	-67.405853
6201.562500	-68.564522
6287.695313	-71.560616
6373.828125	-71.307907
6459.960938	-73.018974
6546.093750	-80.479599
6632.226563	-84.553986
6718.359375	-83.411690
6804.492188	-82.028297
6890.625000	-81.074104
6976.757813	-82.269402
7062.890625	-86.365791
7149.023438	-88.078606
7235.156250	-84.490204
7321.289063	-89.002426
7407.421875	-85.125214
7493.554688	-82.669441
7579.687500	-80.314575
7665.820313	-76.867874
7751.953125	-72.692383
7838.085938	-69.731606
7924.218750	-70.739555
8010.351563	-76.570892
8096.484375	-83.023033
8182.617188	-87.071548
8268.750000	-90.465340
8354.882813	-94.574722
8441.015625	-93.897057
8527.148438	-92.061661
8613.281250	-91.234978
8699.414063	-84.492157
8785.546875	-83.717392
8871.679688	-84.470818
8957.812500	-83.160248
9043.945313	-85.461136
9130.078125	-83.484802
9216.210938	-80.447929
9302.343750	-84.387749
9388.476563	-89.400337
9474.609375	-83.079079
9560.742188	-78.178253
9646.875000	-77.557076
9733.007813	-80.434471
9819.140625	-86.656448
9905.273438	-88.849922
9991.406250	-86.010582
10077.539063	-81.095825
10163.671875	-76.424667
10249.804688	-74.189201
10335.937500	-74.034264
10422.070313	-74.649933
10508.203125	-73.517021
10594.335938	-69.758591
10680.468750	-66.867119
10766.601563	-68.216629
10852.734375	-73.166344
10938.867188	-76.789780
11025.000000	-74.331947
11111.132813	-76.983002
11197.265625	-81.739609
11283.398438	-81.112144
11369.531250	-81.186394
11455.664063	-81.901398
11541.796875	-86.905113
11627.929688	-89.680290
11714.062500	-79.025902
11800.195313	-76.329803
11886.328125	-76.871513
11972.460938	-76.158043
12058.593750	-73.632263
12144.726563	-75.170181
12230.859375	-78.891510
12316.992188	-81.601967
12403.125000	-83.012955
12489.257813	-83.887436
12575.390625	-81.833923
12661.523438	-79.685860
12747.656250	-79.992256
12833.789063	-84.517204
12919.921875	-91.490387
13006.054688	-94.789070
13092.187500	-95.565224
13178.320313	-96.021675
13264.453125	-93.949997
13350.585938	-94.574997
13436.718750	-97.419624
13522.851563	-103.460030
13608.984375	-108.903732
13695.117188	-108.572289
13781.250000	-101.989113
13867.382813	-99.598312
13953.515625	-100.141785
14039.648438	-94.834099
14125.781250	-92.279480
14211.914063	-93.746780
14298.046875	-96.358589
14384.179688	-94.582634
14470.312500	-91.595367
14556.445313	-87.963799
14642.578125	-85.769196
14728.710938	-84.170540
14814.843750	-85.207512
14900.976563	-89.798134
14987.109375	-89.867760
15073.242188	-86.647453
15159.375000	-87.882439
15245.507813	-90.772919
15331.640625	-92.582237
15417.773438	-96.111313
15503.906250	-93.010796
15590.039063	-90.903526
15676.171875	-89.227783
15762.304688	-84.554634
15848.437500	-83.328323
15934.570313	-86.394928
16020.703125	-91.574921
16106.835938	-94.258270
16192.968750	-93.702667
16279.101563	-95.021759
16365.234375	-98.517220
16451.367188	-102.158226
16537.500000	-104.668015
16623.632813	-104.972267
16709.765625	-103.144600
16795.898438	-104.226921
16882.031250	-103.961571
16968.164063	-103.927238
17054.296875	-106.904526
17140.429688	-109.575226
17226.562500	-108.357964
17312.695313	-106.661728
17398.828125	-105.338608
17484.960938	-103.982407
17571.093750	-103.397545
17657.226563	-103.000099
17743.359375	-103.627274
17829.492188	-104.892708
17915.625000	-105.267654
18001.757813	-105.059715
18087.890625	-104.876045
18174.023438	-106.877014
18260.156250	-109.199593
18346.289063	-110.559189
18432.421875	-107.831123
18518.554688	-105.901985
18604.687500	-107.308342
18690.820313	-108.773293
18776.953125	-107.714622
18863.085938	-107.304169
18949.218750	-108.701599
19035.351563	-111.117462
19121.484375	-115.257652
19207.617188	-120.947411
19293.750000	-121.960510
19379.882813	-121.194687
19466.015625	-121.920906
19552.148438	-123.106300
19638.281250	-124.499237
19724.414063	-125.586357
19810.546875	-124.094765
19896.679688	-125.005501
19982.812500	-126.846283
20068.945313	-127.685143
20155.078125	-126.406555
20241.210938	-127.091278
20327.343750	-130.798325
20413.476563	-129.861938
20499.609375	-129.628815
20585.742188	-130.121124
20671.875000	-131.774155
20758.007813	-130.668335
20844.140625	-130.771942
20930.273438	-132.222626
21016.406250	-131.783569
21102.539063	-132.350479
21188.671875	-134.417633
21274.804688	-138.370438
21360.937500	-141.351791
21447.070313	-145.214905
21533.203125	-146.365555
21619.335938	-148.338379
21705.468750	-148.577774
21791.601563	-152.322708
21877.734375	-156.497574
21963.867188	-159.606262
